	czas	Si³a 1	Si³a 2	Odkszta³cenie	Uniwersalne	Pozycja
	[ms]	[N]	[N]	[V]	[V]	[mm]
	500	264.633	74.158	0.002	0.049	-0.02
	1000	-1055.717	32.959	0.002	0.049	0.11
	1500	-2119.881	-20.447	0.002	0.049	0.28
	2000	-3088.326	-69.885	0.002	0.053	0.44
	2500	-4053.955	-117.798	0.002	0.054	0.60
	3000	-5227.913	-170.898	0.002	0.054	0.77
	3500	-6097.824	-221.863	0.002	0.052	0.94
	4000	-6486.328	-255.432	0.000	0.054	1.10
	4500	-6849.495	-272.217	0.001	0.054	1.27
	5000	-7060.638	-288.391	0.001	0.054	1.44
	5500	-7173.248	-295.715	0.001	0.054	1.60
	6000	-7226.738	-301.208	0.001	0.052	1.77
	6500	-7156.357	-301.819	0.001	0.051	1.94
	7000	-6990.257	-295.410	0.001	0.051	2.10
	7500	-6801.636	-288.086	0.001	0.052	2.28
	8000	-6590.492	-277.405	0.002	0.055	2.44
	8500	-6373.718	-266.724	0.001	0.057	2.60
	9000	-6179.466	-256.348	0.001	0.057	2.77
	9500	-5973.953	-249.023	0.001	0.055	2.94
	10000	-5816.299	-241.699	0.001	0.054	3.10
	10500	-5644.569	-234.985	-0.000	0.051	3.28
	11000	-5512.253	-228.882	0.000	0.048	3.44
	11500	-5365.860	-224.304	-0.000	0.046	3.60
	12000	-5250.435	-220.337	-0.000	0.044	3.77
	12500	-5135.010	-218.201	-0.001	0.040	3.94
	13000	-5022.400	-213.013	-0.001	0.039	4.11
	13500	-4898.529	-209.351	-0.001	0.038	4.28
	14000	-4802.811	-205.688	-0.002	0.036	4.43
	14500	-4695.831	-201.416	-0.002	0.035	4.61
	15000	-4574.776	-197.754	-0.002	0.032	4.77
	15500	-4462.166	-192.871	-0.002	0.033	4.93
	16000	-4358.002	-189.514	-0.003	0.033	5.11
	16500	-4239.761	-185.852	-0.002	0.031	5.27
	17000	-4127.151	-180.054	-0.003	0.031	5.44
	17500	-4011.726	-174.255	-0.003	0.032	5.60
	18000	-3913.193	-167.847	-0.002	0.030	5.77
	18500	-3792.137	-162.048	-0.003	0.030	5.94
	19000	-3687.973	-155.945	-0.002	0.030	6.10
	19500	-3569.733	-149.841	-0.002	0.029	6.27
	20000	-3474.014	-145.874	-0.002	0.027	6.44
	20500	-3372.665	-139.771	-0.002	0.028	6.60
	21000	-3282.578	-132.751	-0.001	0.031	6.77
	21500	-3203.751	-126.343	-0.001	0.033	6.94
	22000	-3113.663	-121.155	-0.002	0.034	7.10
	22500	-3051.727	-116.882	-0.001	0.032	7.27
	23000	-2981.346	-112.305	-0.001	0.035	7.44
	23500	-2913.780	-107.422	0.000	0.038	7.60
	24000	-2854.660	-101.624	-0.000	0.041	7.78
	24500	-2792.725	-96.130	0.000	0.043	7.94
	25000	-2733.604	-90.332	0.001	0.046	8.10
	25500	-2663.223	-84.839	0.002	0.048	8.28
	26000	-2601.288	-77.820	0.002	0.052	8.44
	26500	-2539.352	-73.242	0.002	0.052	8.60
	27000	-2477.417	-68.970	0.002	0.054	8.78
	27500	-2423.927	-64.697	0.002	0.056	8.94
	28000	-2387.329	-59.204	0.003	0.061	9.10
	28500	-2322.578	-55.847	0.002	0.060	9.28
	29000	-2285.980	-52.490	0.002	0.061	9.44
	29500	-2252.197	-49.438	0.003	0.062	9.60
	30000	-2204.338	-44.250	0.004	0.066	9.78
	30500	-2173.370	-39.062	0.004	0.069	9.94
	31000	-2128.326	-36.316	0.004	0.067	10.10
	31500	-2074.837	-33.569	0.004	0.069	10.28
	32000	-2049.500	-31.433	0.004	0.069	10.44
	32500	-2004.456	-28.687	0.003	0.071	10.60
	33000	-1965.042	-25.330	0.002	0.071	10.77
	33500	-1934.074	-21.362	0.003	0.074	10.94
	34000	-1900.291	-16.785	0.004	0.076	11.10
	34500	-1852.432	-10.681	0.006	0.080	11.27
	35000	-1815.834	-6.104	0.006	0.081	11.44
	35500	-1773.605	0.305	0.008	0.087	11.60
	36000	-1728.561	6.104	0.008	0.090	11.78
	36500	-1706.039	10.376	0.009	0.092	11.94
	37000	-1680.702	15.869	0.009	0.096	12.10
	37500	-1641.289	19.226	0.009	0.098	12.28
	38000	-1618.767	22.888	0.009	0.101	12.44
	38500	-1596.245	26.245	0.009	0.103	12.60
	39000	-1554.016	28.076	0.008	0.102	12.78
	39500	-1525.864	32.959	0.008	0.104	12.94
	40000	-1503.342	39.062	0.009	0.109	13.10
	40500	-1483.635	45.471	0.011	0.116	13.28
	41000	-1503.342	52.795	0.011	0.125	13.44
	41500	-1520.233	57.678	0.011	0.132	13.60
	42000	-1514.603	62.256	0.011	0.135	13.78
	42500	-1503.342	68.665	0.011	0.141	13.94
	43000	-1497.711	76.599	0.013	0.147	14.10
	43500	-1489.265	83.313	0.013	0.156	14.28
	44000	-1463.928	93.079	0.015	0.164	14.44
	44500	-1441.406	101.318	0.016	0.171	14.60
	45000	-1418.884	110.779	0.017	0.179	14.78
	45500	-1396.362	120.239	0.017	0.186	14.94
	46000	-1390.732	126.038	0.019	0.191	15.10
	46500	-1379.471	131.836	0.018	0.194	15.28
	47000	-1368.210	139.160	0.016	0.200	15.44
	47500	-1345.688	146.484	0.016	0.208	15.60
	48000	-1311.905	152.893	0.015	0.213	15.78
	48500	-1289.383	157.471	0.018	0.216	15.94
	49000	-1266.861	164.795	0.016	0.221	16.10
	49500	-1249.969	170.593	0.017	0.227	16.27
	50000	-1227.448	174.255	0.017	0.230	16.43
	50500	-1235.893	178.223	0.016	0.231	16.60
	51000	-1227.448	182.495	0.014	0.235	16.77
	51500	-1224.632	191.650	0.016	0.244	16.93
	52000	-1230.263	200.500	0.017	0.256	17.10
	52500	-1233.078	208.740	0.016	0.264	17.27
	53000	-1233.078	214.539	0.014	0.270	17.43
	53500	-1207.741	220.337	0.014	0.273	17.60
	54000	-1179.588	225.220	0.012	0.277	17.77
	54500	-1159.882	232.239	0.012	0.282	17.93
	55000	-1142.990	240.479	0.012	0.289	18.10
	55500	-1126.099	245.972	0.011	0.292	18.27
	56000	-1100.761	252.991	0.010	0.299	18.43
	56500	-1069.794	256.348	0.009	0.302	18.60
	57000	-1058.533	260.315	0.007	0.303	18.77
	57500	-1109.207	261.536	0.005	0.306	18.93
	58000	-1157.066	263.062	0.004	0.309	19.10
	58500	-1140.175	263.977	0.002	0.310	19.27
	59000	-1148.621	265.198	0.001	0.312	19.43
	59500	-1182.404	266.113	-0.001	0.315	19.60
	60000	-1210.556	264.893	-0.002	0.313	19.77
	60500	-1238.708	264.893	-0.004	0.314	19.93
	61000	-1255.600	265.198	-0.005	0.316	20.10
	61500	-1283.752	264.282	-0.006	0.316	20.27
	62000	-1300.644	263.367	-0.007	0.314	20.43
	62500	-1309.090	263.672	-0.007	0.317	20.60
	63000	-1351.318	263.367	-0.009	0.317	20.78
	63500	-1444.221	260.010	-0.010	0.319	20.94
	64000	-1478.004	256.348	-0.011	0.319	21.10
	64500	-1531.494	252.380	-0.011	0.318	21.28
	65000	-1584.984	249.634	-0.012	0.314	21.44
	65500	-1621.582	248.108	-0.015	0.316	21.60
	66000	-1655.365	245.667	-0.013	0.315	21.78
	66500	-1689.148	244.751	-0.015	0.314	21.94
	67000	-1717.300	242.920	-0.015	0.317	22.10
	67500	-1773.605	241.089	-0.016	0.317	22.28
	68000	-1779.236	238.953	-0.016	0.316	22.44
	68500	-1813.019	235.901	-0.017	0.314	22.60
	69000	-1846.802	234.070	-0.019	0.315	22.78
	69500	-1877.769	231.323	-0.020	0.315	22.94
	70000	-1897.476	229.492	-0.020	0.315	23.10
	70500	-1936.890	227.356	-0.021	0.313	23.28
	71000	-1959.412	225.525	-0.020	0.312	23.44
	71500	-1987.564	223.083	-0.022	0.311	23.60
	72000	-2010.086	222.168	-0.022	0.312	23.78
	72500	-2029.793	219.116	-0.022	0.311	23.94
	73000	-2052.315	217.590	-0.023	0.310	24.10
	73500	-2069.206	216.064	-0.023	0.309	24.28
	74000	-2077.652	213.928	-0.023	0.308	24.44
	74500	-2091.728	212.402	-0.024	0.303	24.60
	75000	-2114.250	211.182	-0.024	0.304	24.78
	75500	-2162.109	209.656	-0.024	0.306	24.94
	76000	-2198.708	206.604	-0.024	0.305	25.10
	76500	-2235.306	204.163	-0.025	0.305	25.28
	77000	-2271.904	202.026	-0.025	0.304	25.44
	77500	-2319.763	199.280	-0.025	0.302	25.60
	78000	-2353.546	196.838	-0.024	0.303	25.78
	78500	-2387.329	194.397	-0.026	0.301	25.94
	79000	-2407.036	191.956	-0.025	0.302	26.10
	79500	-2432.373	190.430	-0.027	0.301	26.28
	80000	-2454.895	189.209	-0.027	0.302	26.44
	80500	-2488.678	186.462	-0.028	0.301	26.60
	81000	-2528.091	182.190	-0.030	0.299	26.78
	81500	-2556.244	181.885	-0.029	0.301	26.94
	82000	-2578.766	180.054	-0.029	0.299	27.10
	82500	-2590.027	178.528	-0.029	0.295	27.28
	83000	-2598.473	177.002	-0.027	0.295	27.44
	83500	-2595.657	177.917	-0.027	0.296	27.60
	84000	-2564.690	178.223	-0.029	0.294	27.78
	84500	-2514.015	180.359	-0.028	0.297	27.94
	85000	-2452.080	184.021	-0.029	0.296	28.10
	85500	-2387.329	187.073	-0.028	0.296	28.28
	86000	-2316.948	191.956	-0.027	0.300	28.44
	86500	-2271.904	196.228	-0.027	0.299	28.60
	87000	-2277.534	198.669	-0.027	0.302	28.78
	87500	-2308.502	199.280	-0.027	0.305	28.94
	88000	-2316.948	200.195	-0.026	0.305	29.10
	88500	-2319.763	200.195	-0.023	0.307	29.28
	89000	-2331.024	202.637	-0.023	0.310	29.44
	89500	-2336.655	204.163	-0.023	0.312	29.60
	90000	-2336.655	206.909	-0.021	0.314	29.78
	90500	-2331.024	208.130	-0.020	0.314	29.94
	91000	-2328.209	209.656	-0.020	0.315	30.10
	91500	-2342.285	208.435	-0.018	0.316	30.28
	92000	-2381.699	208.130	-0.018	0.317	30.44
	92500	-2409.851	208.435	-0.017	0.315	30.60
	93000	-2443.634	204.163	-0.016	0.315	30.78
	93500	-2463.341	204.468	-0.016	0.317	30.94
	94000	-2488.678	205.383	-0.012	0.317	31.10
	94500	-2508.385	203.857	-0.014	0.318	31.28
	95000	-2528.091	203.552	-0.012	0.321	31.44
	95500	-2550.613	203.247	-0.013	0.322	31.60
	96000	-2550.613	202.026	-0.011	0.321	31.78
	96500	-2567.505	200.195	-0.010	0.319	31.94
	97000	-2629.440	197.449	-0.010	0.317	32.10
	97500	-2770.203	193.787	-0.009	0.316	32.28
	98000	-2871.552	185.242	-0.008	0.314	32.44
	98500	-2950.378	182.495	-0.006	0.315	32.60
	99000	-3017.944	177.612	-0.005	0.316	32.78
	99500	-3079.880	174.561	-0.005	0.318	32.94
	100000	-3158.707	170.898	-0.004	0.316	33.10
	100500	-3203.751	166.931	-0.004	0.316	33.28
	101000	-3237.534	165.100	-0.004	0.317	33.44
	101500	-3282.578	162.659	-0.001	0.314	33.60
	102000	-3316.360	161.133	-0.002	0.312	33.78
	102500	-3361.404	159.912	0.000	0.313	33.94
	103000	-3358.589	156.555	-0.002	0.316	34.10
	103500	-3417.709	156.860	-0.001	0.316	34.28
	104000	-3474.014	153.503	-0.001	0.316	34.44
	104500	-3524.689	150.146	0.001	0.316	34.60
	105000	-3566.917	147.095	0.001	0.317	34.78
	105500	-3637.299	144.348	0.001	0.314	34.94
	106000	-3710.495	137.939	0.002	0.311	35.10
	106500	-3789.322	132.446	0.002	0.309	35.28
	107000	-3856.888	130.310	0.004	0.309	35.44
	107500	-3918.823	125.427	0.005	0.308	35.60
	108000	-3992.020	119.934	0.006	0.305	35.78
	108500	-4042.694	114.136	0.008	0.305	35.94
	109000	-4090.553	110.779	0.009	0.303	36.10
	109500	-4132.782	105.286	0.010	0.299	36.28
	110000	-4155.304	103.149	0.012	0.297	36.44
	110500	-4194.717	100.708	0.013	0.295	36.60
	111000	-4214.424	97.961	0.014	0.294	36.78
	111500	-4228.500	95.215	0.013	0.294	36.94
	112000	-4262.283	93.689	0.013	0.294	37.10
	112500	-4290.436	90.332	0.014	0.293	37.28
	113000	-4304.512	86.670	0.015	0.290	37.44
	113500	-4341.110	83.313	0.016	0.287	37.60
	114000	-4358.002	82.092	0.017	0.286	37.78
	114500	-4400.230	79.651	0.016	0.287	37.94
	115000	-4422.752	78.125	0.016	0.288	38.10
	115500	-4448.090	76.294	0.016	0.287	38.28
	116000	-4473.427	75.378	0.015	0.288	38.44
	116500	-4493.134	74.463	0.015	0.287	38.60
	117000	-4510.025	74.463	0.015	0.288	38.78
	117500	-4529.732	74.158	0.015	0.289	38.94
	118000	-4535.362	74.768	0.013	0.287	39.10
	118500	-4543.808	75.073	0.015	0.288	39.28
	119000	-4552.254	75.989	0.013	0.290	39.44
	119500	-4569.145	75.989	0.013	0.291	39.60
	120000	-4571.960	76.904	0.012	0.292	39.78
	120500	-4591.667	76.294	0.013	0.292	39.94
	121000	-4588.852	76.294	0.012	0.292	40.10
	121500	-4591.667	76.904	0.013	0.292	40.28
	122000	-4594.482	78.125	0.012	0.293	40.44
	122500	-4591.667	78.735	0.012	0.294	40.60
	123000	-4600.113	80.261	0.013	0.296	40.78
	123500	-4600.113	79.041	0.012	0.296	40.94
	124000	-4597.298	77.820	0.009	0.294	41.10
	124500	-4594.482	78.430	0.010	0.296	41.28
	125000	-4605.743	78.125	0.011	0.295	41.44
	125500	-4591.667	77.209	0.010	0.296	41.60
	126000	-4591.667	78.430	0.010	0.294	41.78
	126500	-4594.482	78.125	0.012	0.295	41.94
	127000	-4602.928	78.430	0.011	0.296	42.10
	127500	-4594.482	77.209	0.011	0.294	42.28
	128000	-4608.559	77.209	0.010	0.292	42.44
	128500	-4605.743	77.515	0.011	0.294	42.60
	129000	-4611.374	78.430	0.012	0.294	42.78
	129500	-4617.004	76.294	0.012	0.291	42.94
	130000	-4608.559	75.989	0.012	0.291	43.10
	130500	-4614.189	75.684	0.011	0.293	43.28
	131000	-4617.004	76.904	0.012	0.295	43.44
	131500	-4611.374	76.599	0.012	0.295	43.60
	132000	-4614.189	75.684	0.012	0.293	43.78
	132500	-4614.189	75.378	0.012	0.294	43.94
	133000	-4605.743	75.684	0.013	0.293	44.10
	133500	-4605.743	77.820	0.013	0.294	44.28
	134000	-4628.265	77.209	0.014	0.290	44.44
	134500	-4681.755	74.463	0.014	0.292	44.60
	135000	-4712.723	72.327	0.014	0.294	44.78
	135500	-4735.245	71.411	0.015	0.295	44.94
	136000	-4754.951	70.190	0.015	0.296	45.10
	136500	-4769.028	67.139	0.015	0.294	45.28
	137000	-4783.104	65.308	0.014	0.293	45.44
	137500	-4802.811	64.697	0.015	0.295	45.60
	138000	-4794.365	64.697	0.017	0.292	45.78
	138500	-4811.256	62.866	0.014	0.289	45.94
	139000	-4808.441	61.035	0.016	0.286	46.10
	139500	-4814.072	58.899	0.017	0.284	46.28
	140000	-4811.256	57.373	0.016	0.284	46.44
	140500	-4797.180	58.289	0.017	0.286	46.60
	141000	-4799.995	56.763	0.018	0.286	46.78
	141500	-4808.441	55.542	0.018	0.283	46.94
	142000	-4797.180	53.406	0.018	0.277	47.10
	142500	-4802.811	50.964	0.018	0.276	47.28
	143000	-4794.365	49.438	0.018	0.276	47.44
	143500	-4774.658	45.776	0.020	0.275	47.60
	144000	-4785.919	43.945	0.017	0.273	47.78
	144500	-4763.397	42.725	0.019	0.270	47.94
	145000	-4763.397	40.588	0.019	0.269	48.10
	145500	-4757.767	39.368	0.018	0.267	48.28
	146000	-4746.506	37.842	0.019	0.263	48.44
	146500	-4740.875	34.790	0.020	0.262	48.60
	147000	-4774.658	31.433	0.021	0.260	48.78
	147500	-4799.995	25.635	0.023	0.255	48.94
	148000	-4825.333	18.616	0.020	0.250	49.10
	148500	-4873.192	9.766	0.020	0.241	49.28
	149000	-4921.051	2.441	0.020	0.237	49.44
	149500	-5005.508	-4.272	0.018	0.234	49.60
	150000	-5185.684	-11.902	0.018	0.233	49.78
	150500	-5464.394	-25.024	0.019	0.232	49.94
	151000	-5740.288	-40.894	0.021	0.229	50.10
	151500	-5920.464	-55.847	0.022	0.225	50.28
	152000	-6021.812	-66.528	0.021	0.223	50.44
	152500	-6078.117	-73.547	0.020	0.219	50.60
	153000	-6123.161	-79.956	0.021	0.214	50.78
	153500	-6148.499	-84.229	0.023	0.210	50.94
	154000	-6154.129	-88.806	0.022	0.207	51.10
	154500	-6154.129	-90.027	0.020	0.205	51.28
	155000	-6159.760	-95.215	0.022	0.202	51.44
	155500	-6134.422	-100.098	0.020	0.197	51.60
	156000	-6106.270	-104.065	0.022	0.193	51.78
	156500	-6072.487	-105.896	0.023	0.190	51.94
	157000	-6041.519	-107.117	0.022	0.185	52.10
	157500	-6035.889	-108.948	0.021	0.181	52.28
	158000	-6055.595	-112.305	0.021	0.177	52.44
	158500	-6027.443	-115.662	0.021	0.174	52.60
	159000	-5988.029	-117.493	0.021	0.171	52.78
	159500	-5906.387	-119.019	0.020	0.167	52.94
	160000	-5813.484	-118.713	0.020	0.165	53.10
	160500	-5717.766	-116.272	0.018	0.165	53.28
	161000	-5622.047	-112.000	0.018	0.162	53.44
	161500	-5506.622	-108.643	0.017	0.159	53.60
	162000	-5394.012	-104.980	0.019	0.155	53.78
	162500	-5275.772	-101.013	0.018	0.156	53.94
	163000	-5168.793	-99.182	0.018	0.153	54.10
	163500	-5070.259	-97.351	0.018	0.151	54.28
	164000	-4977.356	-97.046	0.017	0.148	54.44
	164500	-4876.007	-93.689	0.015	0.145	54.60
	165000	-4774.658	-89.417	0.016	0.143	54.78
	165500	-4687.386	-85.449	0.017	0.141	54.94
	166000	-4600.113	-80.872	0.016	0.139	55.10
	166500	-4515.656	-76.904	0.018	0.140	55.28
	167000	-4436.829	-74.158	0.016	0.140	55.44
	167500	-4346.741	-70.801	0.016	0.140	55.60
	168000	-4265.099	-67.139	0.016	0.141	55.78
	168500	-4200.348	-62.866	0.018	0.140	55.94
	169000	-4141.228	-60.120	0.016	0.140	56.10
	169500	-4079.292	-58.289	0.015	0.136	56.28
	170000	-4020.172	-56.152	0.016	0.133	56.44
	170500	-3961.052	-53.101	0.017	0.135	56.60
	171000	-3904.747	-49.133	0.017	0.135	56.78
	171500	-3842.812	-45.776	0.016	0.136	56.94
	172000	-3806.213	-42.725	0.016	0.138	57.10
	172500	-3803.398	-40.894	0.019	0.138	57.28
	173000	-3820.290	-42.419	0.016	0.138	57.44
	173500	-3823.105	-42.114	0.017	0.135	57.60
	174000	-3809.029	-41.809	0.016	0.135	57.78
	174500	-3786.507	-40.588	0.017	0.137	57.94
	175000	-3763.985	-40.588	0.016	0.137	58.10
	175500	-3733.017	-42.419	0.016	0.134	58.28
	176000	-3699.234	-41.809	0.015	0.135	58.44
	176500	-3671.082	-42.114	0.015	0.132	58.60
	177000	-3640.114	-39.673	0.016	0.132	58.78
	177500	-3657.005	-36.316	0.017	0.132	58.94
	178000	-3668.266	-36.316	0.018	0.132	59.10
	178500	-3665.451	-36.621	0.017	0.134	59.28
	179000	-3659.821	-35.400	0.017	0.134	59.44
	179500	-3637.299	-35.095	0.017	0.135	59.60
	180000	-3617.592	-34.180	0.017	0.138	59.78
	180500	-3597.885	-31.738	0.017	0.136	59.94
	181000	-3575.363	-31.433	0.018	0.136	60.10
	181500	-3564.102	-27.771	0.019	0.135	60.28
	182000	-3541.580	-25.330	0.018	0.138	60.44
	182500	-3521.873	-24.414	0.018	0.140	60.60
	183000	-3502.167	-24.414	0.017	0.139	60.78
	183500	-3479.645	-25.330	0.016	0.136	60.94
	184000	-3457.123	-21.667	0.017	0.139	61.10
	184500	-3440.231	-21.973	0.017	0.137	61.28
	185000	-3409.264	-23.499	0.017	0.135	61.44
	185500	-3378.296	-25.330	0.016	0.130	61.60
	186000	-3352.959	-25.635	0.015	0.128	61.78
	186500	-3333.252	-24.414	0.016	0.131	61.94
	187000	-3299.469	-23.499	0.016	0.130	62.10
	187500	-3282.578	-21.362	0.016	0.130	62.28
	188000	-3254.425	-21.667	0.016	0.129	62.44
	188500	-3251.610	-22.888	0.016	0.126	62.60
	189000	-3316.360	-28.076	0.015	0.121	62.78
	189500	-3350.143	-31.738	0.016	0.118	62.94
	190000	-3369.850	-31.128	0.015	0.123	63.10
	190500	-3378.296	-32.043	0.016	0.124	63.28
	191000	-3378.296	-32.959	0.016	0.124	63.44
	191500	-3375.481	-33.875	0.016	0.121	63.60
	192000	-3367.035	-35.706	0.014	0.118	63.78
	192500	-3358.589	-35.400	0.016	0.118	63.94
	193000	-3344.513	-30.823	0.016	0.123	64.10
	193500	-3336.067	-28.381	0.016	0.123	64.28
	194000	-3333.252	-25.635	0.015	0.126	64.44
	194500	-3310.730	-22.583	0.015	0.130	64.60
	195000	-3299.469	-19.836	0.016	0.131	64.78
	195500	-3285.393	-16.785	0.016	0.134	64.94
	196000	-3254.425	-14.343	0.017	0.134	65.10
	196500	-3245.979	-9.155	0.018	0.138	65.28
	197000	-3223.457	-6.104	0.018	0.139	65.44
	197500	-3203.751	-5.798	0.020	0.137	65.60
	198000	-3192.490	-4.883	0.018	0.138	65.78
	198500	-3178.413	-2.441	0.020	0.141	65.94
	199000	-3172.783	4.578	0.020	0.146	66.10
	199500	-3164.337	11.292	0.022	0.153	66.28
	200000	-3141.815	17.700	0.023	0.160	66.44
	200500	-3127.739	22.278	0.023	0.164	66.60
	201000	-3167.152	25.024	0.024	0.166	66.78
	201500	-3186.859	25.940	0.025	0.167	66.94
	202000	-3212.196	28.381	0.023	0.171	67.10
	202500	-3254.425	31.738	0.023	0.179	67.28
	203000	-3333.252	33.569	0.024	0.182	67.44
	203500	-3395.187	31.738	0.024	0.185	67.60
	204000	-3428.970	29.907	0.023	0.184	67.78
	204500	-3468.384	27.161	0.024	0.183	67.94
	205000	-3496.536	26.245	0.024	0.185	68.10
	205500	-3544.395	25.330	0.020	0.186	68.28
	206000	-3592.255	24.109	0.022	0.189	68.44
	206500	-3626.038	22.278	0.023	0.190	68.60
	207000	-3659.821	20.447	0.023	0.189	68.78
	207500	-3693.604	17.395	0.024	0.185	68.94
	208000	-3716.125	15.259	0.023	0.185	69.10
	208500	-3896.301	8.545	0.022	0.183	69.28
	209000	-4025.803	-0.610	0.021	0.180	69.44
	209500	-4121.521	-7.019	0.022	0.177	69.60
	210000	-4191.902	-11.292	0.022	0.180	69.78
	210500	-4256.653	-14.648	0.021	0.181	69.94
	211000	-4310.143	-18.311	0.020	0.179	70.10
	211500	-4352.371	-23.804	0.022	0.178	70.28
	212000	-4391.785	-26.245	0.022	0.178	70.44
	212500	-4411.491	-27.771	0.023	0.177	70.60
	213000	-4448.090	-30.212	0.022	0.174	70.78
	213500	-4510.025	-32.654	0.021	0.172	70.94
	214000	-4594.482	-38.452	0.022	0.175	71.10
	214500	-4673.309	-40.588	0.023	0.175	71.28
	215000	-4704.277	-40.588	0.023	0.179	71.44
	215500	-4735.245	-40.283	0.022	0.182	71.60
	216000	-4766.212	-39.062	0.023	0.184	71.78
	216500	-4780.289	-39.062	0.022	0.184	71.94
	217000	-4842.224	-39.062	0.023	0.184	72.10
	217500	-4960.464	-43.335	0.021	0.184	72.28
	218000	-5042.107	-44.861	0.021	0.186	72.44
	218500	-5089.966	-43.640	0.023	0.192	72.60
	219000	-5129.379	-43.030	0.023	0.196	72.78
	219500	-5163.162	-43.030	0.023	0.197	72.94
	220000	-5171.608	-42.725	0.023	0.197	73.10
	220500	-5168.793	-40.588	0.024	0.198	73.28
	221000	-5174.423	-39.673	0.023	0.199	73.44
	221500	-5174.423	-38.757	0.023	0.200	73.60
	222000	-5160.347	-36.621	0.025	0.203	73.78
	222500	-5157.532	-36.316	0.023	0.203	73.94
	223000	-5154.716	-37.231	0.024	0.201	74.10
	223500	-5135.010	-35.706	0.023	0.201	74.28
